#Wave_number	#Intensity
2999.005859	5429.120605
2997.873047	5699.640137
2996.739258	5489.111816
2995.606445	5578.650391
2994.472656	5544.651367
2993.338867	5431.277832
2992.205078	5624.406738
2991.071289	5493.421875
2989.936523	5457.253906
2988.801758	5577.560547
2987.667969	5464.273926
2986.533203	5514.043945
2985.397461	5543.974609
2984.262695	5525.445313
2983.126953	5388.020020
2981.991211	5479.598145
2980.855469	5472.093750
2979.719727	5394.166016
2978.583984	5569.314453
2977.447266	5526.597168
2976.310547	5543.286133
2975.173828	5570.966309
2974.037109	5517.273926
2972.900391	5489.982910
2971.762695	5574.812500
2970.625977	5490.375000
2969.488281	5636.707520
2968.349609	5572.062012
2967.211914	5575.539063
2966.074219	5636.122559
2964.935547	5457.311035
2963.796875	5537.655273
2962.658203	5556.502441
2961.519531	5599.488281
2960.379883	5517.364746
2959.241211	5417.713379
2958.101563	5502.384766
2956.961914	5567.286133
2955.821289	5632.166016
2954.681641	5582.996094
2953.541016	5571.114746
2952.401367	5605.271484
2951.260742	5639.416992
2950.119141	5590.277344
2948.978516	5652.896973
2947.836914	5665.109863
2946.696289	5622.561035
2945.554688	5687.333984
2944.412109	5708.292969
2943.270508	5775.219238
2942.128906	5769.890137
2940.986328	5779.882324
2939.843750	5660.769043
2938.701172	5769.226563
2937.557617	5774.838379
2936.415039	5795.757324
2935.271484	5766.375000
2934.127930	5835.388184
2932.984375	5703.266602
2931.840820	5695.769531
2930.696289	5725.424316
2929.552734	5783.473633
2928.408203	5734.459961
2927.263672	5705.119629
2926.119141	5833.025391
2924.973633	5738.174316
2923.829102	5715.396973
2922.683594	5727.551270
2921.538086	5634.945801
2920.391602	5599.104004
2919.246094	5709.445801
2918.099609	5719.410645
2916.954102	5587.609863
2915.807617	5619.396973
2914.660156	5574.865234
2913.513672	5597.924316
2912.367188	5527.256348
2911.219727	5585.181641
2910.072266	5527.610840
2908.924805	5624.728516
2907.776367	5510.540039
2906.628906	5646.827148
2905.480469	5571.864746
2904.332031	5444.679199
2903.183594	5517.786133
2902.035156	5521.228027
2900.885742	5444.159180
2899.736328	5465.015625
2898.587891	5511.967773
2897.437500	5515.407715
2896.288086	5427.517090
2895.138672	5602.725098
2893.988281	5484.416504
2892.837891	5440.042480
2891.687500	5523.893066
2890.537109	5446.936523
2889.385742	5404.762207
2888.235352	5423.416992
2887.083984	5444.237305
2885.932617	5497.619141
2884.781250	5637.818848
2883.628906	5471.926758
2882.476563	5373.364258
2881.325195	5450.589844
2880.172852	5525.620117
2879.019531	5446.619141
2877.867188	5454.394043
2876.713867	5405.787598
2875.561523	5478.606934
2874.408203	5351.976563
2873.253906	5411.776367
2872.100586	5469.389160
2870.946289	5481.484375
2869.792969	5415.590820
2868.638672	5354.050781
2867.484375	5357.496582
2866.329102	5282.995117
2865.174805	5360.054199
2864.019531	5220.643066
2862.864258	5375.593750
2861.708984	5236.225586
2860.552734	5285.116699
2859.397461	5228.003906
2858.241211	5346.084961
2857.084961	5159.242676
2855.928711	5264.324219
2854.772461	5265.614746
2853.615234	5212.873535
2852.458984	5307.089355
2851.301758	5250.037598
2850.144531	5288.051270
2848.986328	5202.943848
2847.829102	5253.908691
2846.670898	5216.334961
2845.512695	5254.328125
2844.354492	5259.933105
2843.196289	5168.425781
2842.037109	5092.052246
2840.878906	5244.376465
2839.719727	5226.252441
2838.560547	5152.063477
2837.401367	5170.616211
2836.241211	5247.370605
2835.081055	5102.082520
2833.921875	5155.115723
2832.761719	5109.011230
2831.600586	5103.855469
2830.440430	5133.166992
2829.279297	5112.933105
2828.118164	5069.018555
2826.957031	5167.216797
2825.795898	5136.223145
2824.634766	5109.544434
2823.472656	5132.368652
2822.310547	5079.879883
2821.148438	5066.130371
2819.986328	5110.458496
2818.824219	5113.912109
2817.661133	5014.157227
2816.498047	5187.459473
2815.334961	5081.276367
2814.171875	5089.030273
2813.008789	5103.227539
2811.844727	5033.632813
2810.680664	5000.577637
2809.516602	5089.950195
2808.352539	5190.028809
2807.188477	5032.440918
2806.023438	5010.140137
2804.858398	4951.360352
2803.693359	5025.644531
2802.528320	4943.280762
2801.363281	5073.315430
2800.197266	4903.033691
2799.031250	5054.476074
2797.865234	5115.815918
2796.699219	5080.666504
2795.533203	5060.532715
2794.366211	4991.115723
2793.199219	5001.000488
2792.032227	4918.762207
2790.865234	5022.901367
2789.698242	4985.660156
2788.530273	5085.470703
2787.363281	5037.526855
2786.195313	5028.127930
2785.026367	5044.414063
2783.858398	5073.533691
2782.690430	5089.807129
2781.521484	5056.874512
2780.352539	5006.842773
2779.183594	5200.605957
2778.013672	5020.145508
2776.844727	5070.616211
2775.674805	5118.932617
2774.504883	5107.396973
2773.334961	5057.405273
2772.165039	5122.789551
2770.994141	5124.073730
2769.823242	5046.341797
2768.652344	5177.885742
2767.481445	5172.755371
2766.310547	5122.801758
2765.138672	5196.645020
2763.967773	5170.175781
2762.795898	5214.118164
2761.623047	5089.532227
2760.451172	5201.720215
2759.279297	5192.325684
2758.106445	5240.498535
2756.933594	5275.865234
2755.760742	5321.875977
2754.586914	5271.979004
2753.414063	5345.672852
2752.240234	5274.485352
2751.066406	5386.491699
2749.892578	5481.424805
2748.718750	5359.149414
2747.543945	5547.723145
2746.369141	5431.862305
2745.195313	5633.129395
2744.019531	5589.636230
2742.844727	5595.087891
2741.669922	5798.354004
2740.494141	5727.207520
2739.318359	5868.719238
2738.142578	5806.088379
2736.965820	5924.157227
2735.790039	5967.801758
2734.613281	5941.309082
2733.436523	6027.427246
2732.259766	6034.919922
2731.083008	6127.365234
2729.905273	6198.543945
2728.727539	6386.473145
2727.549805	6332.338867
2726.372070	6339.773438
2725.194336	6376.915039
2724.015625	6522.253418
2722.837891	6389.640137
2721.659180	6520.079590
2720.479492	6565.648438
2719.300781	6700.255371
2718.122070	6798.777832
2716.942383	6907.865234
2715.762695	6932.144531
2714.583008	7075.075684
2713.402344	7056.947754
2712.222656	7250.646973
2711.041992	7304.502441
2709.861328	7407.041992
2708.680664	7532.835938
2707.499023	7470.192871
2706.318359	7672.125977
2705.136719	7734.329102
2703.955078	7800.742676
2702.773438	7822.710938
2701.591797	7692.388672
2700.409180	7729.169434
2699.226563	7922.398438
2698.043945	7587.068359
2696.861328	7723.187988
2695.678711	7483.099121
2694.495117	7418.462891
2693.311523	7518.627930
2692.127930	7320.937012
2690.944336	7298.596680
2689.760742	7155.907227
2688.576172	6914.040527
2687.391602	6896.000000
2686.207031	6694.355469
2685.022461	6703.788574
2683.837891	6702.668945
2682.652344	6319.749023
2681.466797	6268.076660
2680.281250	6292.334473
2679.095703	6346.100098
2677.909180	6201.697266
2676.723633	6204.876465
2675.537109	6047.900879
2674.350586	5897.298828
2673.164063	5959.510742
2671.976563	5861.628418
2670.790039	5890.131348
2669.602539	5705.966797
2668.415039	5692.382324
2667.226563	5666.173340
2666.039063	5639.972656
2664.850586	5554.865234
2663.662109	5490.823730
2662.473633	5401.562500
2661.285156	5486.885254
2660.096680	5399.756836
2658.907227	5361.011719
2657.717773	5305.462891
2656.528320	5342.405762
2655.338867	5341.512207
2654.148438	5237.672363
2652.958984	5125.464844
2651.768555	5349.333984
2650.578125	5159.448730
2649.386719	5150.187500
2648.196289	5090.548340
2647.004883	5247.109863
2645.813477	5011.200684
2644.622070	5136.250977
2643.430664	5059.871094
2642.238281	5086.291016
2641.045898	4976.391113
2639.853516	4933.623535
2638.661133	4951.665527
2637.468750	4961.316895
2636.275391	4824.266602
2635.083008	4961.751465
2633.889648	5023.770020
2632.695313	4903.535156
2631.501953	4980.202637
2630.307617	4862.108398
2629.114258	4934.569824
2627.919922	4810.242676
2626.724609	4828.272949
2625.530273	4823.279297
2624.334961	4858.038574
2623.140625	4754.725098
2621.945313	4917.063965
2620.749023	4790.772461
2619.553711	4806.696289
2618.357422	4849.790039
2617.162109	4692.221680
2615.964844	4804.280273
2614.768555	4841.083984
2613.572266	4727.465332
2612.375000	4695.342773
2611.177734	4646.524414
2609.980469	4608.162109
2608.783203	4720.121582
2607.584961	4752.726563
2606.387695	4733.147461
2605.189453	4715.661133
2603.991211	4710.698242
2602.791992	4770.398926
2601.593750	4694.520020
2600.394531	4708.328613
2599.195313	4651.249023
2597.996094	4687.989258
2596.796875	4689.287109
2595.596680	4617.651855
2594.397461	4716.881836
2593.197266	4699.425781
2591.996094	4623.659180
2590.795898	4593.729980
2589.595703	4603.369629
2588.394531	4579.698730
2587.193359	4614.312500
2585.992188	4578.161621
2584.790039	4729.279297
2583.588867	4616.150391
2582.386719	4661.133789
2581.184570	4545.974121
2579.982422	4543.131836
2578.779297	4650.471191
2577.577148	4643.455078
2576.374023	4490.967285
2575.170898	4473.590332
2573.966797	4624.496094
2572.763672	4544.788086
2571.559570	4544.024902
2570.355469	4630.472168
2569.151367	4650.455566
2567.947266	4552.114258
2566.742188	4538.896973
2565.538086	4386.655762
2564.333008	4489.653809
2563.127930	4520.014648
2561.921875	4542.069336
2560.716797	4526.790527
2559.510742	4515.663086
2558.304688	4608.187012
2557.098633	4510.000000
2555.892578	4563.120605
2554.685547	4479.477051
2553.478516	4487.010254
2552.271484	4581.531738
2551.064453	4497.926758
2549.857422	4488.888672
2548.649414	4597.853027
2547.441406	4516.356445
2546.233398	4472.138184
2545.025391	4438.279785
2543.817383	4462.358398
2542.608398	4573.303223
2541.399414	4578.738281
2540.190430	4569.697266
2538.981445	4498.637207
2537.771484	4504.081543
2536.562500	4559.124023
2535.352539	4440.575195
2534.142578	4474.950195
2532.931641	4550.625977
2531.721680	4477.574707
2530.510742	4507.795410
2529.299805	4403.806152
2528.088867	4460.864258
2526.876953	4557.117188
2525.666016	4444.917480
2524.454102	4468.927734
2523.242188	4497.055176
2522.030273	4494.235352
2520.818359	4476.981445
2519.605469	4647.358887
2518.392578	4446.612793
2517.179688	4482.964355
2515.966797	4457.479492
2514.752930	4436.124512
2513.540039	4486.879395
2512.326172	4463.466309
2511.112305	4485.367676
2509.897461	4464.021484
2508.683594	4516.795410
2507.468750	4464.575684
2506.253906	4402.083008
2505.039063	4407.513672
2503.824219	4429.401367
2502.608398	4484.192871
2501.393555	4452.587891
2500.177734	4464.174805
2498.960938	4301.003906
2497.745117	4450.336426
2496.528320	4406.425781
2495.312500	4436.506348
2494.095703	4374.122070
2492.877930	4490.473633
2491.661133	4415.777344
2490.443359	4427.353516
2489.225586	4393.756348
2488.007813	4417.648926
2486.790039	4421.008789
2485.572266	4504.399902
2484.353516	4501.587891
2483.134766	4429.028320
2481.916016	4403.668457
2480.696289	4456.244141
2479.477539	4504.701660
2478.257813	4432.189941
2477.038086	4449.889160
2475.818359	4502.420898
2474.598633	4384.867676
2473.377930	4486.560547
2472.157227	4475.561523
2470.936523	4388.791016
2469.715820	4457.669434
2468.495117	4434.396484
2467.273438	4480.727051
2466.051758	4533.181641
2464.830078	4450.566406
2463.608398	4472.319824
2462.385742	4393.833496
2461.163086	4421.724121
2459.941406	4566.161621
2458.717773	4442.719727
2457.495117	4423.571777
2456.272461	4518.883789
2455.048828	4401.642090
2453.825195	4435.631836
2452.601563	4436.924805
2451.376953	4436.174805
2450.153320	4415.004395
2448.928711	4469.385254
2447.704102	4307.358887
2446.478516	4406.642578
2445.253906	4426.304688
2444.028320	4480.646484
2442.802734	4406.447754
2441.577148	4419.980469
2440.351563	4406.997070
2439.125000	4375.666992
2437.899414	4336.192871
2436.672852	4380.302246
2435.446289	4293.967285
2434.218750	4201.548340
2432.992188	4259.918457
2431.764648	4293.825195
2430.537109	4362.342285
2429.309570	4237.394043
2428.081055	4246.856445
2426.853516	4266.493164
2425.625000	4225.067383
2424.396484	4279.293457
2423.166992	4227.706543
2421.938477	4320.562500
2420.708984	4220.173828
2419.479492	4256.062012
2418.250000	4208.579590
2417.020508	4222.096191
2415.790039	4140.083984
2414.559570	4301.950684
2413.329102	4205.729492
2412.098633	4186.734863
2410.868164	4224.616211
2409.636719	4272.637695
2408.406250	4225.215332
2407.173828	4114.877930
2405.941406	4235.962402
2404.710938	4281.919434
2403.478516	4275.106934
2402.246094	4150.634766
2401.013672	4210.780762
2399.781250	4165.451660
2398.546875	4203.270996
2397.314453	4076.866943
2396.080078	4122.795410
2394.847656	4116.017090
2393.613281	4143.686523
2392.378906	4181.476563
2391.144531	4239.508789
2389.910156	4101.075195
2388.675781	4193.524414
2387.441406	4168.518555
2386.207031	4070.650635
2384.970703	4061.864746
2383.736328	4152.233887
2382.500000	4098.927246
2381.263672	4126.551270
2380.027344	4101.581543
2378.791016	4082.686768
2377.554688	4215.432129
2376.318359	4125.773438
2375.082031	4199.854004
2373.843750	4081.937500
2372.607422	4089.326416
2371.369141	4090.652588
2370.130859	4120.254395
2368.892578	4143.787598
2367.656250	4143.084473
2366.416016	4045.483154
2365.177734	4038.741211
2363.939453	4007.785400
2362.701172	4059.564453
2361.460938	4147.637695
2360.220703	4062.219971
2358.982422	4101.863281
2357.742188	4081.003418
2356.501953	4100.470215
2355.261719	4061.476807
2354.021484	4034.588135
2352.781250	4130.619629
2351.539063	4007.027832
2350.298828	4068.788818
2349.056641	4078.167236
2347.814453	4041.229980
2346.574219	3939.882080
2345.332031	4021.740723
2344.089844	4053.257813
2342.847656	4096.837402
2341.603516	4069.987061
2340.361328	4069.295166
2339.119141	3962.011230
2337.875000	3993.510986
2336.630859	3992.832031
2335.388672	3988.132813
2334.144531	4140.200195
2332.900391	4055.098389
2331.656250	3982.080566
2330.410156	3971.359375
2329.166016	4036.962402
2327.921875	4102.542969
2326.675781	4117.907227
2325.431641	4052.969482
2324.185547	3976.011230
2322.939453	3993.395264
2321.693359	3978.671143
2320.447266	4048.205811
2319.201172	4105.682617
2317.953125	4026.774658
2316.707031	4098.270020
2315.460938	3991.324463
2314.212891	4074.827393
2312.964844	4090.165771
2311.716797	4109.506348
2310.468750	3980.594238
2309.220703	4046.014648
2307.972656	3939.186035
2306.724609	4102.703613
2305.476563	3945.852539
2304.226563	4051.266113
2302.978516	3918.492188
2301.728516	4003.864746
2300.478516	3979.175781
2299.228516	4070.509277
2297.978516	4029.817871
2296.728516	4029.131348
2295.478516	4020.447998
2294.226563	3997.775146
2292.976563	3985.102539
2291.724609	3992.416260
2290.474609	3885.849121
2289.222656	3939.120117
2287.970703	3940.445801
2286.718750	3965.733154
2285.466797	3971.046631
2284.214844	3986.339111
2282.960938	3935.763916
2281.708984	3947.065674
2280.455078	3920.455811
2279.203125	4027.506592
2277.949219	3913.135498
2276.695313	3896.515137
2275.441406	3953.670410
2274.187500	3921.100830
2272.933594	3978.232178
2271.677734	3915.777832
2270.423828	3825.450684
2269.167969	3753.083252
2267.914063	3975.518066
2266.658203	3901.157715
2265.402344	3892.527832
2264.146484	3836.123291
2262.890625	3960.862793
2261.634766	3844.764404
2260.376953	4007.263672
2259.121094	3928.994629
2257.863281	3906.444580
2256.607422	3919.698486
2255.349609	3932.947754
2254.091797	3868.659912
2252.833984	3836.196777
2251.576172	3917.022217
2250.318359	3934.236084
2249.060547	3935.550781
2247.800781	3918.988281
2246.542969	3854.767822
2245.283203	3836.238770
2244.023438	3914.995117
2242.763672	3952.040283
2241.505859	3864.041992
2240.244141	3837.586426
2238.984375	3830.978760
2237.724609	3790.652100
2236.464844	3918.916016
2235.203125	3838.929688
2233.941406	3828.360596
2232.681641	3780.132568
2231.419922	3846.870850
2230.158203	3943.309814
2228.896484	3869.330566
2227.634766	3731.987793
2226.371094	3822.454834
2225.109375	3843.583496
2223.845703	3866.684814
2222.583984	3810.596680
2221.320313	3804.007324
2220.056641	3823.145264
2218.792969	3899.653320
2217.529297	3776.339355
2216.265625	3924.031250
2215.001953	3856.124756
2213.736328	3817.898926
2212.472656	3787.593506
2211.207031	3836.357422
2209.943359	3916.722900
2208.677734	3860.729980
2207.412109	3832.412598
2206.146484	3883.110107
2204.880859	3825.176514
2203.613281	3852.164063
2202.347656	3756.746826
2201.080078	3785.710449
2199.814453	3783.088867
2198.546875	3861.365234
2197.279297	3835.058105
2196.011719	3836.373779
2194.744141	3762.749268
2193.476563	3884.353516
2192.208984	3664.861084
2190.939453	3758.844971
2189.671875	3821.264893
2188.402344	3794.994873
2187.134766	3831.776123
2185.865234	3815.361572
2184.595703	3842.279297
2183.326172	3770.735107
2182.056641	3815.369385
2180.785156	3795.031738
2179.515625	3784.541016
2178.244141	3772.086182
2176.974609	3734.059570
2175.703125	3865.210205
2174.431641	3864.547607
2173.160156	3722.307617
2171.888672	3747.227539
2170.617188	3787.864258
2169.345703	3791.145508
2168.072266	3816.040283
2166.800781	3736.799072
2165.527344	3781.337891
2164.253906	3741.409180
2162.982422	3778.076904
2161.708984	3763.685547
2160.435547	3710.039307
2159.160156	3687.813721
2157.886719	3808.843994
2156.613281	3745.407471
2155.337891	3813.421875
2154.064453	3777.464111
2152.789063	3808.191162
2151.513672	3701.663574
2150.238281	3708.869385
2148.962891	3727.832275
2147.687500	3721.313477
2146.410156	3663.855469
2145.134766	3747.460938
2143.857422	3764.444824
2142.582031	3744.215820
2141.304688	3741.614746
2140.027344	3713.565918
2138.750000	3765.774170
2137.472656	3696.634766
2136.195313	3746.871094
2134.917969	3804.915039
2133.638672	3800.349609
2132.361328	3723.428955
2131.082031	3695.415771
2129.802734	3696.735596
2128.523438	3660.917969
2127.244141	3840.078857
2125.964844	3778.847900
2124.685547	3748.894775
2123.406250	3650.588867
2122.125000	3767.135010
2120.845703	3715.720947
2119.564453	3685.798828
2118.283203	3780.807617
2117.001953	3665.015869
2115.720703	3707.312256
2114.439453	3636.443115
2113.158203	3643.619873
2111.876953	3728.802490
2110.593750	3802.256348
2109.312500	3688.529053
2108.029297	3676.199219
2106.746094	3697.004395
2105.462891	3719.750732
2104.179688	3715.214355
2102.896484	3617.181885
2101.613281	3702.250732
2100.330078	3672.405518
2099.044922	3712.657471
2097.761719	3630.264648
2096.476563	3748.357178
2095.191406	3821.654297
2093.906250	3713.992920
2092.621094	3713.353516
2091.335938	3702.989990
2090.050781	3657.628662
2088.763672	3641.445313
2087.478516	3699.133545
2086.191406	3700.439941
2084.906250	3717.291260
2083.619141	3697.222412
2082.332031	3700.470703
2081.044922	3668.758545
2079.757813	3617.638672
2078.468750	3593.717529
2077.181641	3705.685791
2075.892578	3639.059082
2074.605469	3673.360840
2073.316406	3630.044434
2072.027344	3644.937256
2070.738281	3570.608398
2069.449219	3564.175293
2068.160156	3598.459961
2066.871094	3617.224365
2065.580078	3628.229736
2064.291016	3579.158691
2063.000000	3611.478760
2061.708984	3674.782227
2060.417969	3616.043945
2059.126953	3689.006592
2057.835938	3636.094238
2056.544922	3629.659668
2055.253906	3636.775635
2053.960938	3616.796631
2052.669922	3606.498535
2051.376953	3617.483398
2050.083984	3634.266602
2048.791016	3656.845215
2047.498047	3588.542236
2046.205078	3547.326904
2044.912109	3579.572510
2043.619141	3536.440186
2042.324219	3557.083252
2041.029297	3502.378418
2039.736328	3594.484863
2038.441406	3613.175781
2037.146484	3629.929443
2035.851563	3633.163574
2034.556641	3534.098633
2033.261719	3616.470459
2031.964844	3596.551025
2030.669922	3518.763916
2029.373047	3539.373291
2028.076172	3579.260010
2026.779297	3507.300049
2025.482422	3556.817383
2024.185547	3533.073242
2022.888672	3594.131348
2021.591797	3481.755127
2020.292969	3589.036377
2018.996094	3480.551758
2017.697266	3601.276855
2016.400391	3550.591797
2015.101563	3596.181641
2013.802734	3570.537354
2012.503906	3521.808105
2011.203125	3528.895752
2009.904297	3493.656982
2008.605469	3537.292969
2007.304688	3428.984619
2006.003906	3612.982666
2004.703125	3522.000732
2003.404297	3454.116211
2002.101563	3447.753174
2000.800781	3502.880127
1999.500000	3500.353027
1998.199219	3542.005615
1996.896484	3562.518311
1995.595703	3588.784180
1994.292969	3503.690674
1992.990234	3564.508301
1991.687500	3402.681396
1990.384766	3538.329834
1989.082031	3476.325439
1987.779297	3498.741699
1986.474609	3452.107910
1985.171875	3518.623047
1983.867188	3427.906738
1982.562500	3459.899414
1981.257813	3518.712158
1979.953125	3518.103027
1978.648438	3481.092529
1977.343750	3472.827637
1976.039063	3451.159180
1974.732422	3412.264404
1973.427734	3476.767090
1972.121094	3518.276855
1970.814453	3481.303955
1969.507813	3541.933594
1968.201172	3503.056152
1966.894531	3473.756348
1965.587891	3429.166016
1964.279297	3462.991455
1962.972656	3326.648682
1961.664063	3469.437256
1960.355469	3442.079102
1959.048828	3407.086670
1957.740234	3481.007080
1956.431641	3493.775146
1955.121094	3369.027100
1953.812500	3486.834961
1952.503906	3404.134033
1951.193359	3502.805664
1949.882813	3345.696777
1948.574219	3350.841064
1947.263672	3430.391602
1945.953125	3389.737549
1944.642578	3373.891846
1943.330078	3468.651367
1942.019531	3407.039551
1940.707031	3377.854736
1939.396484	3445.881348
1938.083984	3412.888428
1936.771484	3391.338379
1935.458984	3425.038330
1934.146484	3386.352295
1932.833984	3361.009033
1931.521484	3442.294434
1930.207031	3380.781738
1928.894531	3477.261230
1927.580078	3322.520020
1926.265625	3363.800293
1924.953125	3393.652588
1923.638672	3355.024414
1922.322266	3396.277100
1921.007813	3382.378418
1919.693359	3370.385010
1918.376953	3400.209473
1917.062500	3348.311035
1915.746094	3309.730225
1914.429688	3345.248047
1913.113281	3356.062744
1911.796875	3344.085693
1910.480469	3294.139893
1909.164063	3318.245361
1907.847656	3389.791992
1906.529297	3328.478027
1905.210938	3363.948486
1903.894531	3333.011963
1902.576172	3374.158936
1901.257813	3352.712646
1899.939453	3361.609863
1898.619141	3307.946533
1897.300781	3244.824951
1895.982422	3323.851074
1894.662109	3344.114502
1893.341797	3407.940918
1892.023438	3356.209473
1890.703125	3295.027588
1889.382813	3313.387939
1888.060547	3386.639893
1886.740234	3427.690186
1885.419922	3321.120605
1884.097656	3301.622314
1882.777344	3340.773682
1881.455078	3300.473145
1880.132813	3258.295410
1878.810547	3333.357666
1877.488281	3334.667725
1876.166016	3364.328369
1874.841797	3210.673584
1873.519531	3306.474609
1872.195313	3243.559082
1870.873047	3203.330322
1869.548828	3274.532715
1868.224609	3321.165039
1866.900391	3311.147705
1865.576172	3350.207275
1864.250000	3387.365967
1862.925781	3241.493652
1861.599609	3327.705811
1860.275391	3270.542236
1858.949219	3283.172852
1857.623047	3235.464111
1856.296875	3210.393555
1854.970703	3264.493652
1853.644531	3311.036621
1852.316406	3182.337158
1850.990234	3328.720947
1849.662109	3269.752197
1848.335938	3272.948486
1847.007813	3264.846436
1845.679688	3243.569580
1844.351563	3216.653564
1843.023438	3255.611572
1841.693359	3253.162354
1840.365234	3166.059814
1839.035156	3110.962158
1837.707031	3249.579834
1836.376953	3230.210938
1835.046875	3173.250732
1833.716797	3199.010986
1832.386719	3266.105225
1831.056641	3218.562744
1829.724609	3231.151123
1828.394531	3200.535400
1827.062500	3171.807861
1825.732422	3221.949463
1824.400391	3255.177734
1823.068359	3175.778320
1821.736328	3156.457764
1820.402344	3232.834229
1819.070313	3254.781250
1817.738281	3201.695557
1816.404297	3146.752686
1815.070313	3176.202637
1813.738281	3125.032715
1812.404297	3268.809326
1811.070313	3122.067139
1809.736328	3226.447021
1808.400391	3100.369873
1807.066406	3139.161377
1805.730469	3123.631592
1804.396484	3207.341797
1803.060547	3191.804932
1801.724609	3215.579346
1800.388672	3140.162598
1799.052734	3139.613770
1797.716797	3178.350098
1796.378906	3189.016846
1795.042969	3203.419922
1793.705078	3131.810059
1792.369141	3135.001221
1791.031250	3166.227539
1789.693359	3255.374268
1788.355469	3209.962646
1787.017578	3226.214355
1785.677734	3227.517822
1784.339844	3154.122803
1783.000000	3112.494385
1781.662109	3177.287842
1780.322266	3141.269043
1778.982422	3159.380859
1777.642578	3164.425537
1776.302734	3178.795898
1774.962891	3137.206055
1773.621094	3196.331787
1772.281250	3141.701660
1770.939453	3090.818848
1769.597656	3164.832275
1768.255859	3134.461670
1766.914063	3191.672363
1765.572266	3043.946045
1764.230469	3175.654541
1762.888672	3122.956055
1761.544922	3081.447510
1760.203125	3151.647705
1758.859375	3143.650879
1757.515625	3046.332275
1756.171875	3190.925293
1754.828125	3225.711426
1753.484375	3094.950195
1752.140625	3220.862061
1750.794922	3186.830566
1749.451172	3098.900635
1748.105469	3083.488525
1746.759766	3162.855957
1745.414063	3136.289795
1744.068359	3078.152344
1742.722656	3124.046387
1741.376953	3023.219971
1740.029297	3109.954590
1738.683594	3094.558350
1737.335938	3090.303711
1735.988281	3067.493408
1734.642578	3144.881836
1733.294922	3094.243652
1731.945313	3075.153809
1730.597656	3069.051025
1729.250000	3053.680176
1727.900391	3151.393799
1726.552734	3043.341797
1725.203125	3085.429443
1723.853516	3120.091064
1722.503906	3063.969971
1721.154297	3068.988770
1719.804688	3029.562012
1718.455078	3016.070068
1717.103516	3145.122070
1715.753906	3037.221436
1714.402344	3044.090576
1713.050781	3017.653564
1711.699219	3050.421387
1710.347656	2990.700684
1708.996094	3086.334473
1707.642578	3054.361572
1706.291016	3050.128174
1704.939453	3073.619629
1703.585938	3061.992432
1702.232422	3041.131104
1700.878906	3042.444092
1699.525391	3049.297607
1698.171875	3091.234131
1696.818359	3077.766846
1695.462891	2944.316650
1694.109375	3030.544434
1692.753906	3081.680908
1691.398438	3058.999512
1690.042969	3097.199951
1688.687500	3089.278076
1687.332031	2915.397217
1685.976563	3027.350342
1684.621094	3139.263916
1683.263672	3107.380127
1681.906250	3064.451172
1680.550781	3012.325195
1679.193359	3057.847412
1677.835938	3042.575684
1676.478516	3062.296387
1675.121094	3056.234375
1673.761719	3059.378418
1672.404297	3038.595215
1671.044922	3061.982422
1669.685547	3090.880859
1668.328125	3033.312988
1666.968750	3084.275879
1665.607422	3069.022461
1664.248047	3094.221436
1662.888672	3053.236816
1661.527344	3054.537354
1660.167969	3144.039307
1658.806641	3130.625488
1657.445313	3102.520752
1656.083984	3089.118652
1654.722656	3119.791016
1653.361328	3110.062256
1652.000000	3102.172119
1650.636719	3074.096680
1649.275391	3113.924316
1647.912109	3150.068604
1646.548828	3081.644287
1645.185547	3068.263672
1643.822266	3095.228027
1642.458984	3043.349121
1641.095703	3095.970703
1639.730469	3056.938477
1638.367188	3032.579102
1637.001953	3108.990723
1635.636719	3093.789063
1634.271484	3133.534912
1632.906250	3145.800049
1631.541016	3121.445801
1630.175781	3109.912842
1628.810547	3255.773926
1627.443359	3163.710205
1626.076172	3168.640869
1624.710938	3142.474121
1623.343750	3154.721680
1621.976563	3230.962402
1620.609375	3230.392578
1619.240234	3266.380127
1617.873047	3256.666260
1616.503906	3270.709473
1615.136719	3319.458496
1613.767578	3375.496582
1612.398438	3290.893799
1611.029297	3310.398193
1609.660156	3464.990234
1608.291016	3475.330322
1606.919922	3440.042725
1605.550781	3477.752930
1604.179688	3502.679443
1602.808594	3596.908691
1601.437500	3681.986084
1600.066406	3719.626465
1598.695313	3872.103760
1597.324219	3991.718506
1595.953125	4032.928467
1594.580078	4223.532227
1593.208984	4428.642578
1591.835938	4589.966309
1590.462891	4787.654785
1589.089844	5050.821289
1587.716797	5299.330566
1586.343750	5427.623535
1584.968750	5615.924805
1583.595703	5669.517090
1582.220703	5723.089844
1580.845703	5747.542480
1579.470703	5750.163574
1578.095703	5538.236328
1576.720703	5337.291016
1575.345703	5049.173340
1573.970703	4946.515625
1572.593750	4689.456055
1571.218750	4463.369629
1569.841797	4284.585938
1568.464844	4156.711426
1567.087891	3936.285400
1565.710938	3828.485840
1564.333984	3718.909668
1562.955078	3585.781250
1561.578125	3461.771484
1560.199219	3439.390625
1558.820313	3344.469727
1557.443359	3352.944824
1556.064453	3326.968750
1554.685547	3330.005615
1553.304688	3095.614014
1551.925781	3209.228516
1550.544922	3051.035645
1549.166016	3055.929932
1547.785156	3048.144531
1546.404297	3016.821045
1545.023438	3019.907959
1543.642578	3073.678711
1542.261719	3056.845703
1540.880859	2902.493896
1539.498047	2842.275879
1538.115234	2877.950439
1536.734375	2946.166504
1535.351563	2918.520996
1533.968750	2887.269043
1532.585938	2908.448975
1531.201172	2869.980469
1529.818359	2941.750977
1528.435547	2850.897217
1527.050781	2846.779297
1525.666016	2920.321289
1524.281250	2838.547607
1522.896484	2798.326416
1521.511719	2821.296143
1520.126953	2770.263428
1518.742188	2852.775391
1517.355469	2805.363281
1515.970703	2849.960205
1514.583984	2824.206543
1513.197266	2784.036865
1511.810547	2861.063965
1510.423828	2737.987061
1509.037109	2768.138428
1507.648438	2751.430908
1506.261719	2799.584229
1504.873047	2822.503418
1503.484375	2744.564209
1502.095703	2744.077148
1500.707031	2711.185791
1499.318359	2815.101074
1497.929688	2739.017578
1496.541016	2837.492676
1495.150391	2703.864746
1493.759766	2795.116455
1492.371094	2735.275146
1490.980469	2774.345947
1489.589844	2772.055664
1488.199219	2767.968750
1486.806641	2780.056885
1485.416016	2795.733887
1484.023438	2735.955322
1482.632813	2774.983887
1481.240234	2792.448730
1479.847656	2743.475342
1478.455078	2805.818115
1477.062500	2735.321289
1475.669922	2750.986084
1474.275391	2743.320557
1472.882813	2742.833008
1471.488281	2787.184570
1470.093750	2723.926025
1468.699219	2782.608154
1467.304688	2744.468994
1465.910156	2767.280762
1464.515625	2716.614014
1463.119141	2771.672119
1461.724609	2841.041016
1460.328125	2731.284424
1458.931641	2750.496338
1457.535156	2789.395508
1456.138672	2817.540283
1454.742188	2777.665039
1453.345703	2848.747559
1451.947266	2762.364258
1450.550781	2777.971924
1449.152344	2816.823730
1447.753906	2760.890381
1446.355469	2767.550293
1444.957031	2745.607910
1443.558594	2718.311523
1442.160156	2721.401611
1440.759766	2706.624756
1439.361328	2698.998047
1437.960938	2727.092285
1436.560547	2705.179688
1435.160156	2786.821045
1433.759766	2623.893311
1432.359375	2700.166016
1430.957031	2688.979248
1429.556641	2699.204346
1428.154297	2729.046387
1426.751953	2694.676514
1425.351563	2756.603516
1423.949219	2700.847412
1422.544922	2752.056641
1421.142578	2721.270508
1419.740234	2669.114014
1418.335938	2713.175049
1416.933594	2691.317871
1415.529297	2680.153320
1414.125000	2658.309570
1412.720703	2657.835693
1411.316406	2691.179932
1409.912109	2713.834473
1408.505859	2651.077148
1407.101563	2716.424805
1405.695313	2762.184570
1404.289063	2637.211426
1402.882813	2693.636475
1401.476563	2623.827393
1400.070313	2644.687500
1398.664063	2653.101074
1397.255859	2618.870361
1395.849609	2666.365723
1394.441406	2664.114014
1393.033203	2658.311523
1391.625000	2656.061768
1390.216797	2609.434570
1388.808594	2642.690430
1387.400391	2727.394531
1385.990234	2654.166504
1384.582031	2683.848389
1383.171875	2667.407471
1381.761719	2640.333008
1380.351563	2687.730225
1378.941406	2690.795654
1377.531250	2739.938965
1376.119141	2647.307861
1374.708984	2661.008301
1373.296875	2724.301025
1371.886719	2695.478271
1370.474609	2696.767578
1369.062500	2662.648682
1367.648438	2715.274902
1366.236328	2675.855469
1364.824219	2701.918945
1363.410156	2680.206787
1361.998047	2626.664063
1360.583984	2751.756836
1359.169922	2788.396484
1357.755859	2694.202148
1356.341797	2699.023193
1354.925781	2723.281982
1353.511719	2724.562012
1352.095703	2651.645020
1350.681641	2727.120605
1349.265625	2724.866943
1347.849609	2683.770020
1346.433594	2741.545898
1345.017578	2733.995605
1343.599609	2707.036133
1342.183594	2766.540771
1340.765625	2725.472656
1339.349609	2710.875244
1337.931641	2687.465576
1336.513672	2720.483887
1335.095703	2630.094482
1333.675781	2698.360840
1332.257813	2643.250732
1330.837891	2651.586914
1329.419922	2540.135742
1328.000000	2624.219727
1326.580078	2518.095703
1325.160156	2549.335449
1323.740234	2642.173584
1322.320313	2595.941650
1320.898438	2576.120850
1319.478516	2559.825684
1318.056641	2624.450684
1316.634766	2543.080566
1315.212891	2577.792725
1313.791016	2572.056885
1312.369141	2571.596191
1310.947266	2548.288818
1309.523438	2567.160645
1308.101563	2528.051025
1306.677734	2532.867432
1305.253906	2492.021484
1303.830078	2505.621826
1302.406250	2498.150635
1300.982422	2571.422852
1299.556641	2491.990479
1298.132813	2566.991943
1296.707031	2464.782715
1295.281250	2511.698242
1293.855469	2558.596924
1292.429688	2449.430420
1291.003906	2484.052002
1289.578125	2460.821045
1288.152344	2456.875000
1286.724609	2508.997070
1285.296875	2564.604004
1283.871094	2483.576660
1282.443359	2469.121826
1281.013672	2501.944824
1279.585938	2454.231934
1278.158203	2392.534180
1276.728516	2437.602051
1275.300781	2449.411865
1273.871094	2478.709717
1272.441406	2495.754395
1271.011719	2437.601318
1269.582031	2417.932129
1268.152344	2387.781982
1266.720703	2448.522705
1265.291016	2425.367188
1263.859375	2463.367188
1262.429688	2424.496094
1260.998047	2390.878418
1259.566406	2428.863770
1258.132813	2438.902588
1256.701172	2415.772949
1255.269531	2434.535889
1253.835938	2404.435791
1252.402344	2410.982178
1250.968750	2391.362061
1249.535156	2364.773438
1248.101563	2348.656006
1246.667969	2435.399170
1245.234375	2366.984863
1243.798828	2389.214111
1242.365234	2369.618652
1240.929688	2318.673096
1239.494141	2361.799805
1238.058594	2436.256592
1236.623047	2329.610596
1235.187500	2411.009277
1233.750000	2337.475342
1232.314453	2363.157471
1230.876953	2324.455566
1229.439453	2318.818848
1228.001953	2365.361084
1226.564453	2295.378662
1225.126953	2282.795410
1223.687500	2282.384766
1222.250000	2339.327637
1220.810547	2276.350586
1219.373047	2289.839600
1217.933594	2315.483398
1216.494141	2289.015625
1215.052734	2299.021973
1213.613281	2309.024902
1212.173828	2292.987061
1210.732422	2316.871094
1209.292969	2264.398682
1207.851563	2309.097412
1206.410156	2296.539795
1204.968750	2296.126221
1203.527344	2269.703857
1202.083984	2290.098389
1200.642578	2237.686768
1199.199219	2256.346680
1197.755859	2255.940186
1196.312500	2279.786865
1194.869141	2305.356689
1193.425781	2216.622803
1191.982422	2200.640625
1190.539063	2222.748291
1189.093750	2192.924072
1187.648438	2187.337402
1186.205078	2205.975098
1184.759766	2160.601074
1183.314453	2255.336914
1181.867188	2209.969971
1180.421875	2207.842529
1178.976563	2242.016846
1177.529297	2207.046387
1176.082031	2203.192383
1174.634766	2220.071777
1173.187500	2230.035645
1171.740234	2189.911133
1170.292969	2218.870605
1168.843750	2228.829102
1167.396484	2143.846680
1165.947266	2162.443848
1164.498047	2201.740234
1163.050781	2172.014648
1161.599609	2209.570068
1160.150391	2191.925537
1158.701172	2188.081299
1157.250000	2229.061035
1155.800781	2178.673340
1154.349609	2162.770020
1152.898438	2148.595459
1151.447266	2174.048096
1149.996094	2127.150879
1148.544922	2154.320068
1147.091797	2147.043945
1145.640625	2089.847900
1144.187500	2196.181641
1142.734375	2116.626465
1141.281250	2167.859619
1139.828125	2148.545654
1138.375000	2132.678467
1136.921875	2185.600342
1135.466797	2128.469238
1134.011719	2171.058838
1132.558594	2168.947754
1131.103516	2192.612549
1129.648438	2161.291504
1128.193359	2147.158936
1126.736328	2165.662354
1125.281250	2166.988037
1123.824219	2103.074707
1122.367188	2128.441650
1120.912109	2092.017090
1119.455078	2100.218018
1117.998047	2098.122559
1116.539063	2104.604004
1115.082031	2133.377197
1113.623047	2129.562012
1112.166016	2117.176514
1110.707031	2101.367432
1109.248047	2118.124268
1107.789063	2107.460693
1106.330078	2065.965576
1104.869141	2137.527588
1103.410156	2120.016113
1101.949219	2039.161743
1100.490234	2057.622803
1099.029297	2089.769287
1097.568359	2085.968506
1096.107422	2065.059814
1094.644531	2182.716797
1093.183594	2103.648438
1091.720703	2110.107422
1090.259766	2049.886963
1088.796875	2058.062500
1087.333984	2095.288818
1085.871094	2122.248779
1084.408203	2000.566162
1082.943359	2032.657959
1081.480469	1975.932007
1080.015625	2033.628906
1078.550781	1992.287842
1077.085938	2109.701416
1075.621094	2082.013916
1074.156250	2110.642822
1072.691406	2062.493652
1071.224609	2060.414063
1069.759766	2024.228638
1068.292969	2028.976685
1066.826172	2043.951172
1065.359375	2006.083618
1063.892578	2038.097534
1062.425781	2047.950684
1060.957031	2001.585327
1059.490234	2048.910889
1058.021484	2063.864990
1056.552734	2058.382813
1055.083984	2044.391479
1053.615234	2049.126465
1052.146484	2016.423706
1050.677734	2024.564331
1049.207031	2078.629150
1047.738281	2006.822510
1046.267578	2009.859009
1044.796875	1982.292969
1043.326172	2058.422852
1041.855469	2025.759277
1040.382813	2020.293945
1038.912109	2013.131714
1037.439453	2043.339844
1035.968750	2041.270508
1034.496094	1959.399658
1033.023438	1996.391235
1031.550781	1994.331299
1030.076172	2026.211914
1028.603516	2027.540527
1027.128906	2013.601074
1025.656250	2013.235229
1024.181641	1978.954102
1022.707031	1981.985474
1021.232422	1934.161133
1019.757813	2020.246338
1018.281250	1926.679932
1016.806641	2031.371460
1015.330078	1970.021362
1013.853516	2006.922485
1012.376953	1986.238037
1010.900391	1989.262817
1009.423828	1936.427979
1007.947266	1947.922363
1006.468750	1981.409424
1004.992188	2053.794678
1003.513672	2002.677612
1002.035156	1985.401855
1000.556641	1973.204834
